File: AIF/Fig09A_coreshell_1st.aif
data_data_raw2aifv006
_exptl_operator 'kunimitu'
_exptl_date 2020-10-30T00:00:00
_exptl_instrument 'BEL 00034'
_exptl_adsorptive CO2 (273K)
_exptl_temperature 273.15
_exptl_sample_mass 0.0300
_sample_id 'HK104'
_sample_material_id 'ELM-11'
_units_temperature K
_units_pressure kPa
_units_mass g
_units_loading 'ml(STP) g-1'

loop_
_adsorp_pressure
_adsorp_p0
_adsorp_amount
0.2393 3485.1 0.077856
3.6224 3485.1 1.4708
5.4482 3485.1 2.1182
8.9683 3485.1 3.3695
10.159 3485.1 3.7689
14.071 3485.1 5.1243
15.235 3485.1 5.5414
16.998 3485.1 6.1869
19.244 3485.1 7.0708
21.285 3485.1 8.0002
22.574 3485.1 8.6782
23.68 3485.1 9.2454
24.741 3485.1 9.7119
25.782 3485.1 10.093
26.81 3485.1 10.448
27.831 3485.1 10.768
28.848 3485.1 11.059
29.852 3485.1 11.344
30.814 3485.1 11.625
31.819 3485.1 12.01
32.584 3485.1 12.802
33.148 3485.1 14.546
33.89 3485.1 21.787
34.288 3485.1 25.381
34.591 3485.1 31.341
35.146 3485.1 37.671
35.7 3485.1 43.239
36.359 3485.1 46.739
37.323 3485.1 50.496
38.209 3485.1 52.219
39.369 3485.1 53.577
40.607 3485.1 54.415
41.77 3485.1 54.941
42.844 3485.1 55.326
43.882 3485.1 55.668
44.907 3485.1 55.952
46.751 3485.1 56.452
47.906 3485.1 56.721
54.558 3485.1 58.059
59.984 3485.1 58.94
66.024 3485.1 59.784
72.111 3485.1 60.5
78.191 3485.1 61.152
84.25 3485.1 61.743
90.301 3485.1 62.271
95.376 3485.1 62.713
100.32 3485.1 63.096

loop_
_desorp_pressure
_desorp_p0
_desorp_amount
94.347 3485.1 63.061
88.46 3485.1 62.895
82.518 3485.1 62.632
76.579 3485.1 62.319
70.674 3485.1 61.911
64.797 3485.1 61.349
58.905 3485.1 60.713
52.319 3485.1 59.798
46.759 3485.1 58.871
44.289 3485.1 58.385
43.078 3485.1 58.095
40.409 3485.1 57.515
39.124 3485.1 57.192
38.075 3485.1 56.898
36.292 3485.1 56.426
35.159 3485.1 56.061
34.129 3485.1 55.754
33.132 3485.1 55.42
32.149 3485.1 55.087
31.16 3485.1 54.723
30.181 3485.1 54.348
29.199 3485.1 53.952
28.222 3485.1 53.519
27.241 3485.1 53.032
26.273 3485.1 52.525
25.427 3485.1 51.7
24.579 3485.1 48.518
23.867 3485.1 42.067
23.343 3485.1 36.549
22.836 3485.1 32.595
22.011 3485.1 25.662
20.963 3485.1 18.973
19.62 3485.1 13.516
18.489 3485.1 10.713
17.746 3485.1 9.3479
16.741 3485.1 8.1537
14.689 3485.1 6.6842
11.275 3485.1 5.0117
9.5752 3485.1 4.1706
5.2573 3485.1 2.3638
4.6858 3485.1 2.0805
1.5395 3485.1 0.62567
0.9076 3485.1 0.19581