File: AIF/Fig09B_mixture_1st.aif
data_data_raw2aifv006
_exptl_operator 'kunimitu'
_exptl_date 2020-12-15T00:00:00
_exptl_instrument 'BEL 00034'
_exptl_adsorptive CO2 (273K)
_exptl_temperature 273.15
_exptl_sample_mass 0.0307
_sample_id 'HK101_060'
_sample_material_id 'ELM-11'
_units_temperature K
_units_pressure kPa
_units_mass g
_units_loading 'ml(STP) g-1'

loop_
_adsorp_pressure
_adsorp_p0
_adsorp_amount
0.37996 3485.1 0.18764
5.2724 3485.1 2.3294
10.302 3485.1 4.3052
15.285 3485.1 6.2549
17.507 3485.1 7.2336
19.858 3485.1 8.4421
21.737 3485.1 10.037
22.747 3485.1 11.515
23.859 3485.1 12.594
24.953 3485.1 13.388
26.895 3485.1 14.412
28.019 3485.1 14.894
29.92 3485.1 15.607
31.924 3485.1 16.263
33.967 3485.1 16.962
35.27 3485.1 19.242
36.172 3485.1 24.436
36.91 3485.1 30.389
37.815 3485.1 36.791
38.279 3485.1 38.936
39.261 3485.1 43.999
40.592 3485.1 47.917
41.426 3485.1 49.802
42.542 3485.1 51.423
43.635 3485.1 52.573
44.757 3485.1 53.446
45.884 3485.1 54.198
46.985 3485.1 54.704
48.905 3485.1 55.475
54.359 3485.1 56.882
60.446 3485.1 58.034
66.317 3485.1 58.924
72.507 3485.1 59.781
78.533 3485.1 60.523
84.54 3485.1 61.158
90.552 3485.1 61.763
95.588 3485.1 62.202
100.48 3485.1 62.64

loop_
_desorp_pressure
_desorp_p0
_desorp_amount
94.202 3485.1 62.316
88.192 3485.1 61.876
82.251 3485.1 61.415
76.267 3485.1 60.833
70.324 3485.1 60.195
64.355 3485.1 59.479
58.407 3485.1 58.658
52.464 3485.1 57.674
46.113 3485.1 56.45
43.944 3485.1 55.944
41.924 3485.1 55.437
39.952 3485.1 54.92
37.958 3485.1 54.352
35.974 3485.1 53.753
34.0 3485.1 53.088
32.024 3485.1 52.366
30.037 3485.1 51.559
28.086 3485.1 50.62
26.306 3485.1 49.05
25.614 3485.1 46.652
24.681 3485.1 40.411
23.833 3485.1 33.553
22.792 3485.1 26.812
21.602 3485.1 20.776
20.827 3485.1 17.611
19.78 3485.1 14.556
18.549 3485.1 12.252
17.289 3485.1 10.76
16.183 3485.1 9.6625
14.589 3485.1 8.502
9.885 3485.1 5.8989
5.3326 3485.1 3.8876
4.3856 3485.1 3.4354
1.5453 3485.1 2.1354
0.80439 3485.1 1.711