File: AIF/Fig09B_mixture_2nd.aif
data_data_raw2aifv006
_exptl_operator 'kunimitu'
_exptl_date 2020-12-17T00:00:00
_exptl_instrument 'BEL 00034'
_exptl_adsorptive CO2 (273K)
_exptl_temperature 273.15
_exptl_sample_mass 0.0258
_sample_id 'HK101_060_CO2'
_sample_material_id 'ELM-11'
_units_temperature K
_units_pressure kPa
_units_mass g
_units_loading 'ml(STP) g-1'

loop_
_adsorp_pressure
_adsorp_p0
_adsorp_amount
0.31911 3485.1 0.24327
5.1748 3485.1 2.7811
10.227 3485.1 4.9853
15.23 3485.1 7.1047
17.445 3485.1 8.1214
19.753 3485.1 9.3577
21.644 3485.1 10.999
22.668 3485.1 12.493
23.78 3485.1 13.528
24.857 3485.1 14.234
25.884 3485.1 14.794
26.911 3485.1 15.268
28.857 3485.1 16.02
29.882 3485.1 16.381
30.881 3485.1 16.713
31.89 3485.1 17.04
32.885 3485.1 17.354
33.876 3485.1 17.668
34.876 3485.1 17.999
35.91 3485.1 18.412
37.657 3485.1 19.399
38.702 3485.1 20.165
39.645 3485.1 21.076
40.569 3485.1 22.167
41.575 3485.1 23.279
42.573 3485.1 24.326
43.64 3485.1 25.205
44.721 3485.1 26.099
45.744 3485.1 26.905
46.769 3485.1 27.656
47.783 3485.1 28.343
48.798 3485.1 29.001
53.885 3485.1 31.737
54.588 3485.1 31.981
60.099 3485.1 33.971
66.147 3485.1 35.702
72.245 3485.1 37.136
78.336 3485.1 38.226
84.353 3485.1 39.251
90.382 3485.1 40.181
95.44 3485.1 40.91
100.37 3485.1 41.58

loop_
_desorp_pressure
_desorp_p0
_desorp_amount
94.208 3485.1 41.306
88.246 3485.1 40.959
82.305 3485.1 40.523
76.317 3485.1 39.98
70.397 3485.1 39.377
64.418 3485.1 38.68
58.45 3485.1 37.875
52.512 3485.1 36.928
46.225 3485.1 35.731
44.063 3485.1 35.227
42.054 3485.1 34.748
40.064 3485.1 34.233
38.086 3485.1 33.692
36.106 3485.1 33.082
35.053 3485.1 32.728
33.119 3485.1 32.074
32.074 3485.1 31.659
30.164 3485.1 30.898
29.098 3485.1 30.377
27.24 3485.1 29.352
26.123 3485.1 28.73
25.19 3485.1 27.954
24.256 3485.1 26.991
23.429 3485.1 25.503
22.64 3485.1 23.331
21.73 3485.1 20.766
20.791 3485.1 17.885
19.73 3485.1 15.246
18.562 3485.1 13.207
17.383 3485.1 11.753
16.291 3485.1 10.656
14.645 3485.1 9.4608
9.9286 3485.1 6.7232
5.2184 3485.1 4.4052
4.4379 3485.1 4.0209
1.5414 3485.1 2.4559
0.80921 3485.1 1.9464