File: AIF/Fig1C_epsilon.aif
data_data_raw2aifv006
_exptl_operator 'kunimitu'
_exptl_date 2021-02-07T00:00:00
_exptl_instrument 'BEL 00034'
_exptl_adsorptive CO2 (273K)
_exptl_temperature 273.15
_exptl_sample_mass 0.0194
_sample_id 'ARM5_uwazumi'
_sample_material_id 'ELM-11'
_units_temperature K
_units_pressure kPa
_units_mass g
_units_loading 'ml(STP) g-1'

loop_
_adsorp_pressure
_adsorp_p0
_adsorp_amount
0.33938 3485.1 0.033529
5.4892 3485.1 0.19448
10.491 3485.1 0.32619
15.495 3485.1 0.42328
17.502 3485.1 0.49456
19.776 3485.1 0.5639
21.769 3485.1 0.6527
22.777 3485.1 0.71094
23.776 3485.1 0.76932
24.78 3485.1 0.82861
25.782 3485.1 0.90194
26.777 3485.1 0.95006
27.779 3485.1 1.0237
28.784 3485.1 1.0663
29.772 3485.1 1.1374
30.777 3485.1 1.1802
31.772 3485.1 1.2609
32.759 3485.1 1.3984
33.686 3485.1 1.8324
34.436 3485.1 3.2374
35.309 3485.1 7.585
35.989 3485.1 13.845
36.727 3485.1 21.7
37.257 3485.1 25.396
37.895 3485.1 31.621
38.198 3485.1 33.448
38.98 3485.1 39.323
39.877 3485.1 45.762
40.248 3485.1 47.682
41.212 3485.1 52.688
42.314 3485.1 57.199
43.431 3485.1 61.045
44.188 3485.1 63.304
45.559 3485.1 66.697
46.361 3485.1 68.289
47.343 3485.1 69.981
48.368 3485.1 71.609
53.701 3485.1 75.846
54.421 3485.1 76.205
60.293 3485.1 77.463
66.406 3485.1 78.084
72.434 3485.1 78.502
78.436 3485.1 78.906
84.44 3485.1 79.262
90.441 3485.1 79.6
95.443 3485.1 79.883
100.34 3485.1 80.175

loop_
_desorp_pressure
_desorp_p0
_desorp_amount
94.29 3485.1 80.318
88.319 3485.1 80.384
82.365 3485.1 80.383
76.361 3485.1 80.323
70.391 3485.1 80.181
64.422 3485.1 79.969
58.443 3485.1 79.66
52.492 3485.1 79.252
46.247 3485.1 78.711
44.21 3485.1 78.461
43.197 3485.1 78.336
42.194 3485.1 78.221
40.212 3485.1 77.957
39.203 3485.1 77.779
38.203 3485.1 77.633
37.2 3485.1 77.459
36.208 3485.1 77.278
35.214 3485.1 77.089
34.215 3485.1 76.895
33.22 3485.1 76.679
32.221 3485.1 76.464
31.233 3485.1 76.228
30.227 3485.1 75.995
29.233 3485.1 75.76
28.236 3485.1 75.479
27.244 3485.1 75.176
26.265 3485.1 74.79
25.409 3485.1 73.783
24.717 3485.1 71.319
23.845 3485.1 64.61
23.095 3485.1 56.419
22.256 3485.1 46.917
21.747 3485.1 41.997
20.993 3485.1 34.909
20.099 3485.1 27.118
18.944 3485.1 20.085
17.747 3485.1 14.438
16.487 3485.1 10.609
15.08 3485.1 7.7148
9.9638 3485.1 4.3893
4.8734 3485.1 4.2499
0.94825 3485.1 4.076