File: AIF/Fig1C_delta.aif
data_data_raw2aifv006
_exptl_operator 'kunimitu'
_exptl_date 2021-02-09T00:00:00
_exptl_instrument 'BEL 00034'
_exptl_adsorptive CO2 (273K)
_exptl_temperature 273.15
_exptl_sample_mass 0.0190
_sample_id 'HK107_10'
_sample_material_id 'ELM-11'
_units_temperature K
_units_pressure kPa
_units_mass g
_units_loading 'ml(STP) g-1'

loop_
_adsorp_pressure
_adsorp_p0
_adsorp_amount
0.29611 3485.1 0.28778
5.1746 3485.1 2.3987
10.339 3485.1 3.4932
15.385 3485.1 4.2918
17.462 3485.1 4.6467
19.715 3485.1 4.9735
21.725 3485.1 5.2457
22.74 3485.1 5.3954
23.745 3485.1 5.5484
24.743 3485.1 5.695
25.748 3485.1 5.8491
26.753 3485.1 5.9672
27.756 3485.1 6.0905
28.756 3485.1 6.2047
29.752 3485.1 6.3397
30.755 3485.1 6.4555
31.747 3485.1 6.5844
32.748 3485.1 6.6954
33.756 3485.1 6.811
34.752 3485.1 6.9174
35.749 3485.1 7.0348
36.748 3485.1 7.1464
37.753 3485.1 7.2733
38.751 3485.1 7.3719
39.749 3485.1 7.4957
40.754 3485.1 7.6149
41.747 3485.1 7.728
42.745 3485.1 7.8568
43.746 3485.1 7.9921
44.735 3485.1 8.1374
45.74 3485.1 8.2765
46.74 3485.1 8.4315
47.726 3485.1 8.6111
48.727 3485.1 8.7719
54.373 3485.1 9.4568
60.371 3485.1 10.059
66.399 3485.1 10.486
72.402 3485.1 10.9
78.403 3485.1 11.285
84.413 3485.1 11.574
90.4 3485.1 11.923
95.42 3485.1 12.156
100.31 3485.1 12.465

loop_
_desorp_pressure
_desorp_p0
_desorp_amount
94.28 3485.1 12.681
88.336 3485.1 12.805
82.37 3485.1 12.894
76.398 3485.1 12.902
70.401 3485.1 12.884
64.421 3485.1 12.803
58.438 3485.1 12.672
52.479 3485.1 12.476
46.237 3485.1 12.199
44.226 3485.1 12.051
43.211 3485.1 11.949
42.219 3485.1 11.867
40.219 3485.1 11.719
39.215 3485.1 11.634
38.213 3485.1 11.553
37.225 3485.1 11.455
36.221 3485.1 11.371
35.228 3485.1 11.245
34.224 3485.1 11.158
33.231 3485.1 11.025
32.237 3485.1 10.88
31.243 3485.1 10.724
30.245 3485.1 10.535
29.251 3485.1 10.328
28.261 3485.1 10.102
27.259 3485.1 9.8852
26.265 3485.1 9.637
25.267 3485.1 9.3954
24.271 3485.1 9.155
23.266 3485.1 8.9075
22.272 3485.1 8.6691
21.27 3485.1 8.4296
20.275 3485.1 8.1752
19.284 3485.1 7.9016
18.288 3485.1 7.608
17.289 3485.1 7.3218
16.296 3485.1 7.0085
14.587 3485.1 6.5207
9.6697 3485.1 5.4458
4.9478 3485.1 4.2707
1.6116 3485.1 2.9316
0.81703 3485.1 2.3179