File: AIF/Fig1C_alphaprime.aif
data_data_raw2aifv006
_exptl_operator 'kunimitu'
_exptl_date 2020-11-24T00:00:00
_exptl_instrument 'BEL 00034'
_exptl_adsorptive CO2 (273K)
_exptl_temperature 273.15
_exptl_sample_mass 0.0294
_sample_id 'HK101_ads'
_sample_material_id 'ELM-11'
_units_temperature K
_units_pressure kPa
_units_mass g
_units_loading 'ml(STP) g-1'

loop_
_adsorp_pressure
_adsorp_p0
_adsorp_amount
0.39717 3485.1 0.053521
5.6279 3485.1 0.31797
10.678 3485.1 0.44957
15.676 3485.1 0.56745
17.688 3485.1 0.65325
20.099 3485.1 0.72774
22.101 3485.1 0.78367
24.091 3485.1 0.83448
26.097 3485.1 0.91249
28.081 3485.1 1.0056
30.059 3485.1 1.1738
31.733 3485.1 2.2918
32.405 3485.1 4.3956
33.122 3485.1 10.683
33.704 3485.1 18.991
34.129 3485.1 24.887
34.528 3485.1 33.887
34.931 3485.1 40.385
35.455 3485.1 49.652
35.991 3485.1 55.857
36.885 3485.1 63.279
37.379 3485.1 65.265
38.219 3485.1 67.867
39.524 3485.1 69.648
40.804 3485.1 70.576
41.939 3485.1 71.105
43.902 3485.1 71.782
45.948 3485.1 72.316
47.991 3485.1 72.752
54.455 3485.1 73.767
60.524 3485.1 74.494
66.547 3485.1 75.068
72.575 3485.1 75.578
78.574 3485.1 76.01
84.588 3485.1 76.43
90.579 3485.1 76.833
95.622 3485.1 77.168
100.51 3485.1 77.45

loop_
_desorp_pressure
_desorp_p0
_desorp_amount
94.181 3485.1 77.343
88.19 3485.1 77.167
82.172 3485.1 76.956
76.227 3485.1 76.717
70.278 3485.1 76.388
64.294 3485.1 75.985
58.318 3485.1 75.495
52.361 3485.1 74.931
46.029 3485.1 74.207
43.923 3485.1 73.889
41.913 3485.1 73.583
39.932 3485.1 73.246
37.949 3485.1 72.888
35.958 3485.1 72.505
33.969 3485.1 72.077
31.982 3485.1 71.628
30.01 3485.1 71.098
28.028 3485.1 70.487
26.138 3485.1 69.554
25.254 3485.1 68.361
24.711 3485.1 65.618
24.024 3485.1 57.69
23.405 3485.1 47.623
22.786 3485.1 41.607
22.185 3485.1 33.444
21.601 3485.1 28.712
20.875 3485.1 22.346
19.836 3485.1 16.051
18.48 3485.1 11.315
17.603 3485.1 9.2468
16.514 3485.1 7.4188
14.935 3485.1 5.4111
10.01 3485.1 2.5515
4.3732 3485.1 1.7715
0.96616 3485.1 1.4038