File: AIF/Fig1C_alpha.aif
data_data_raw2aifv006
_exptl_operator 'kunimitu'
_exptl_date 2020-11-21T00:00:00
_exptl_instrument 'BEL 00034'
_exptl_adsorptive CO2 (273K)
_exptl_temperature 273.15
_exptl_sample_mass 0.0296
_sample_id 'HK101'
_sample_material_id 'ELM-11'
_units_temperature K
_units_pressure kPa
_units_mass g
_units_loading 'ml(STP) g-1'

loop_
_adsorp_pressure
_adsorp_p0
_adsorp_amount
0.40352 3485.1 0.050532
5.6471 3485.1 0.29076
10.679 3485.1 0.41738
15.682 3485.1 0.52799
17.694 3485.1 0.60416
20.103 3485.1 0.66531
22.107 3485.1 0.73154
24.104 3485.1 0.79132
26.104 3485.1 0.85817
28.102 3485.1 0.9424
30.092 3485.1 1.0328
32.079 3485.1 1.1368
33.975 3485.1 1.5143
35.286 3485.1 6.2297
35.699 3485.1 12.758
36.191 3485.1 17.611
36.532 3485.1 24.931
36.921 3485.1 30.567
37.404 3485.1 38.639
37.94 3485.1 44.218
38.531 3485.1 51.748
39.305 3485.1 56.333
40.163 3485.1 61.597
41.476 3485.1 66.057
42.365 3485.1 68.046
43.492 3485.1 69.742
44.673 3485.1 70.966
45.829 3485.1 71.761
46.9 3485.1 72.37
48.863 3485.1 73.124
54.424 3485.1 74.217
60.513 3485.1 74.97
66.552 3485.1 75.541
72.578 3485.1 76.029
78.584 3485.1 76.463
84.593 3485.1 76.854
90.595 3485.1 77.21
95.612 3485.1 77.506
100.52 3485.1 77.756

loop_
_desorp_pressure
_desorp_p0
_desorp_amount
94.14 3485.1 77.623
88.174 3485.1 77.441
82.211 3485.1 77.218
76.226 3485.1 76.934
70.259 3485.1 76.606
64.282 3485.1 76.205
58.31 3485.1 75.728
52.358 3485.1 75.177
46.006 3485.1 74.44
43.908 3485.1 74.132
41.913 3485.1 73.824
39.929 3485.1 73.488
37.937 3485.1 73.125
35.952 3485.1 72.733
33.959 3485.1 72.303
31.978 3485.1 71.83
30.0 3485.1 71.306
28.034 3485.1 70.673
26.241 3485.1 69.425
25.598 3485.1 67.121
24.936 3485.1 59.83
24.394 3485.1 49.919
23.794 3485.1 43.843
23.21 3485.1 35.42
22.643 3485.1 30.455
21.984 3485.1 23.612
21.045 3485.1 16.372
19.632 3485.1 10.823
18.641 3485.1 8.5947
17.5 3485.1 6.7539
16.331 3485.1 5.4775
14.706 3485.1 4.2331
9.7222 3485.1 2.5363
4.9631 3485.1 2.0137
0.77059 3485.1 1.5337