File: AIF/FigS2_gamma.aif
data_data_raw2aifv006
_exptl_operator 'kunimitu'
_exptl_date 2020-11-28T00:00:00
_exptl_instrument 'BEL 00034'
_exptl_adsorptive CO2 (273K)
_exptl_temperature 273.15
_exptl_sample_mass 0.0241
_sample_id 'HK101_2ads'
_sample_material_id 'ELM-11'
_units_temperature K
_units_pressure kPa
_units_mass g
_units_loading 'ml(STP) g-1'

loop_
_adsorp_pressure
_adsorp_p0
_adsorp_amount
0.18831 3485.1 0.10671
5.3537 3485.1 1.3037
10.109 3485.1 1.8578
15.358 3485.1 2.3212
17.536 3485.1 2.5009
19.885 3485.1 2.6837
21.916 3485.1 2.8416
23.918 3485.1 2.9628
25.926 3485.1 3.0887
27.925 3485.1 3.2024
29.965 3485.1 3.3265
31.967 3485.1 3.4775
33.858 3485.1 3.8503
34.781 3485.1 4.3768
35.708 3485.1 5.1289
36.578 3485.1 6.2701
37.502 3485.1 7.6432
38.398 3485.1 9.2972
39.401 3485.1 10.946
40.417 3485.1 12.497
41.529 3485.1 13.772
42.563 3485.1 14.943
43.602 3485.1 15.954
44.684 3485.1 16.755
45.689 3485.1 17.539
46.696 3485.1 18.267
47.711 3485.1 18.98
48.723 3485.1 19.614
53.834 3485.1 22.377
54.543 3485.1 22.603
60.025 3485.1 24.506
66.174 3485.1 25.867
72.241 3485.1 26.952
78.273 3485.1 27.841
84.301 3485.1 28.594
90.434 3485.1 29.017
95.124 3485.1 29.378
100.36 3485.1 29.718

loop_
_desorp_pressure
_desorp_p0
_desorp_amount
94.209 3485.1 30.003
88.218 3485.1 30.147
82.241 3485.1 30.227
76.268 3485.1 30.245
70.315 3485.1 30.198
64.328 3485.1 30.066
58.366 3485.1 29.862
52.415 3485.1 29.565
46.12 3485.1 29.105
44.069 3485.1 28.871
42.061 3485.1 28.62
40.068 3485.1 28.366
38.087 3485.1 28.087
36.097 3485.1 27.774
34.124 3485.1 27.405
33.085 3485.1 27.169
31.134 3485.1 26.742
30.105 3485.1 26.456
29.114 3485.1 26.16
28.12 3485.1 25.856
27.129 3485.1 25.499
26.193 3485.1 25.0
25.203 3485.1 24.471
24.299 3485.1 23.673
23.551 3485.1 22.153
22.797 3485.1 19.922
21.614 3485.1 15.567
20.484 3485.1 11.974
19.638 3485.1 10.292
18.668 3485.1 8.5048
17.501 3485.1 7.249
16.331 3485.1 6.4719
14.724 3485.1 5.6142
10.152 3485.1 4.2402
9.4715 3485.1 4.1218
4.6833 3485.1 3.2746
1.0395 3485.1 2.2803