File: AIF/FigS5A_coreshell_2nd.aif
data_data_raw2aifv006
_exptl_operator 'kunimitu'
_exptl_date 2020-11-28T00:00:00
_exptl_instrument 'BEL 00034'
_exptl_adsorptive CO2 (273K)
_exptl_temperature 273.15
_exptl_sample_mass 0.0284
_sample_id 'HK104_2ads'
_sample_material_id 'ELM-11'
_units_temperature K
_units_pressure kPa
_units_mass g
_units_loading 'ml(STP) g-1'

loop_
_adsorp_pressure
_adsorp_p0
_adsorp_amount
0.35729 3485.1 0.20634
5.2488 3485.1 2.3456
10.314 3485.1 4.2625
15.313 3485.1 6.1462
17.503 3485.1 7.0761
19.843 3485.1 8.1565
21.839 3485.1 9.2603
22.946 3485.1 9.9782
24.882 3485.1 10.917
25.994 3485.1 11.376
27.943 3485.1 12.033
29.937 3485.1 12.681
31.676 3485.1 14.092
32.48 3485.1 15.831
33.261 3485.1 18.412
34.506 3485.1 22.963
35.246 3485.1 25.285
36.235 3485.1 27.892
37.298 3485.1 30.027
38.445 3485.1 31.709
39.589 3485.1 33.175
40.666 3485.1 34.398
41.726 3485.1 35.432
42.796 3485.1 36.276
43.801 3485.1 37.109
44.818 3485.1 37.884
45.852 3485.1 38.59
46.863 3485.1 39.232
47.886 3485.1 39.823
48.851 3485.1 40.258
54.013 3485.1 42.612
60.144 3485.1 44.515
66.237 3485.1 45.984
72.382 3485.1 47.098
78.392 3485.1 48.06
84.423 3485.1 48.939
90.452 3485.1 49.722
95.493 3485.1 50.342
100.41 3485.1 50.899

loop_
_desorp_pressure
_desorp_p0
_desorp_amount
94.167 3485.1 50.665
88.236 3485.1 50.357
82.259 3485.1 49.952
76.286 3485.1 49.455
70.324 3485.1 48.871
64.328 3485.1 48.238
58.402 3485.1 47.49
52.451 3485.1 46.625
46.129 3485.1 45.518
43.968 3485.1 45.043
41.976 3485.1 44.593
39.988 3485.1 44.103
37.994 3485.1 43.582
36.011 3485.1 43.034
34.025 3485.1 42.424
32.051 3485.1 41.772
30.071 3485.1 41.035
28.096 3485.1 40.194
26.178 3485.1 39.137
25.09 3485.1 38.433
23.414 3485.1 36.688
22.679 3485.1 34.222
21.641 3485.1 28.581
20.604 3485.1 23.132
19.522 3485.1 18.175
18.75 3485.1 15.527
17.757 3485.1 12.79
16.526 3485.1 10.75
14.768 3485.1 9.0532
9.9492 3485.1 6.2457
5.2409 3485.1 4.1144
4.3996 3485.1 3.7016
1.5014 3485.1 2.3147
0.78128 3485.1 1.8587