File: AIF/FigS2_zeta.aif
data_data_raw2aifv006
_exptl_operator 'sakanaka'
_exptl_date 2021-08-16T00:00:00
_exptl_instrument 'BEL 00034'
_exptl_adsorptive CO2 (273K)
_exptl_temperature 273.15
_exptl_sample_mass 0.1303
_sample_id 'rsELM-11_high'
_sample_material_id 'ELM-11'
_units_temperature K
_units_pressure kPa
_units_mass g
_units_loading 'ml(STP) g-1'

loop_
_adsorp_pressure
_adsorp_p0
_adsorp_amount
1.0186 3485.1 0.04342
7.6543 3485.1 0.17228
12.733 3485.1 0.24401
17.733 3485.1 0.3144
23.503 3485.1 0.41207
28.399 3485.1 0.58418
30.225 3485.1 3.1675
30.678 3485.1 10.689
31.132 3485.1 17.499
31.475 3485.1 25.017
31.837 3485.1 31.806
32.333 3485.1 38.117
32.714 3485.1 45.044
33.346 3485.1 51.295
33.988 3485.1 57.922
34.99 3485.1 64.565
36.837 3485.1 70.635
38.319 3485.1 73.103
40.858 3485.1 75.266
44.296 3485.1 76.377
48.727 3485.1 77.16
55.761 3485.1 78.085
62.057 3485.1 78.759
68.183 3485.1 79.329
74.067 3485.1 79.826
80.214 3485.1 80.325
86.325 3485.1 80.754
92.359 3485.1 81.165
97.427 3485.1 81.49
102.32 3485.1 81.796

loop_
_desorp_pressure
_desorp_p0
_desorp_amount
92.596 3485.1 81.29
86.421 3485.1 80.943
80.478 3485.1 80.575
74.516 3485.1 80.168
68.573 3485.1 79.726
62.639 3485.1 79.229
56.723 3485.1 78.667
50.829 3485.1 78.036
43.406 3485.1 77.083
39.08 3485.1 76.408
34.356 3485.1 75.525
30.561 3485.1 74.498
28.405 3485.1 71.931
27.626 3485.1 68.312
26.759 3485.1 60.73
26.204 3485.1 52.558
25.558 3485.1 45.286
25.152 3485.1 37.2
24.565 3485.1 29.925
24.046 3485.1 22.039
23.3 3485.1 13.79
22.051 3485.1 7.317
18.729 3485.1 1.7529
14.233 3485.1 1.0329
7.5875 3485.1 0.73133
3.9556 3485.1 0.61531
0.77504 3485.1 0.46533