File: AIF/FigS01.aif
data_data_raw2aifv006
_exptl_operator 'kunimitsu'
_exptl_date 2020-11-30T00:00:00
_exptl_instrument 'BEL 00138'
_exptl_adsorptive H2O
_exptl_temperature 303.15
_exptl_sample_mass 0.02766
_sample_id 'HK101'
_sample_material_id 'ELM-11'
_units_temperature K
_units_pressure kPa
_units_mass g
_units_loading 'ml(STP) g-1'

loop_
_adsorp_pressure
_adsorp_p0
_adsorp_amount
0.0039796 4.241 0.012436
0.0043424 4.241 0.016693
0.016324 4.241 0.1691
0.0189 4.241 0.35789
0.021606 4.241 0.59545
0.025889 4.241 1.2995
0.021253 4.241 2.6909
0.019185 4.241 5.8297
0.016917 4.241 13.827
0.018433 4.241 28.088
0.045962 4.241 42.899
0.073044 4.241 57.257
0.21398 4.241 67.356
0.45192 4.241 73.684
0.6593 4.241 77.382
0.83173 4.241 79.034
1.0898 4.241 80.377
1.3885 4.241 80.994
1.5805 4.241 81.639
1.7991 4.241 82.361
2.0219 4.241 83.119
2.4808 4.241 84.552
2.9001 4.241 86.219
3.3123 4.241 88.112
3.6281 4.241 90.292
3.809 4.241 92.303
3.9017 4.241 94.075
4.0908 4.241 101.94
4.1363 4.241 110.21
4.1737 4.241 119.06