File: AIF/FigS2_beta.aif
data_data_raw2aifv006
_exptl_operator 'kunimitu'
_exptl_date 2020-12-18T00:00:00
_exptl_instrument 'BEL 00034'
_exptl_adsorptive CO2 (273K)
_exptl_temperature 273.15
_exptl_sample_mass 0.0252
_sample_id 'HK101_H2O'
_sample_material_id 'ELM-11'
_units_temperature K
_units_pressure kPa
_units_mass g
_units_loading 'ml(STP) g-1'

loop_
_adsorp_pressure
_adsorp_p0
_adsorp_amount
0.21304 3485.1 0.077732
5.5041 3485.1 0.71902
10.415 3485.1 1.0421
15.51 3485.1 1.283
17.586 3485.1 1.3943
19.922 3485.1 1.5074
21.974 3485.1 1.5915
23.933 3485.1 1.6768
25.929 3485.1 1.7669
27.938 3485.1 1.8497
29.93 3485.1 1.9507
31.923 3485.1 2.0665
33.878 3485.1 2.3377
34.73 3485.1 3.0158
35.352 3485.1 4.8968
36.197 3485.1 9.7323
36.967 3485.1 15.637
37.877 3485.1 22.154
38.23 3485.1 24.354
39.307 3485.1 29.329
40.486 3485.1 33.473
41.311 3485.1 35.517
42.269 3485.1 37.692
43.321 3485.1 39.728
44.375 3485.1 41.521
45.502 3485.1 42.947
46.542 3485.1 44.236
47.575 3485.1 45.395
48.671 3485.1 46.283
53.553 3485.1 50.198
54.507 3485.1 50.526
59.801 3485.1 52.946
60.545 3485.1 53.18
66.159 3485.1 54.75
72.196 3485.1 56.142
78.259 3485.1 57.293
84.372 3485.1 58.086
90.378 3485.1 58.821
95.427 3485.1 59.392
100.35 3485.1 59.877

loop_
_desorp_pressure
_desorp_p0
_desorp_amount
94.21 3485.1 59.991
88.247 3485.1 60.023
82.306 3485.1 59.971
76.317 3485.1 59.846
70.333 3485.1 59.614
64.369 3485.1 59.335
58.393 3485.1 58.918
52.459 3485.1 58.404
46.202 3485.1 57.66
44.091 3485.1 57.305
42.097 3485.1 56.992
40.111 3485.1 56.607
39.079 3485.1 56.383
37.133 3485.1 55.956
36.089 3485.1 55.698
34.151 3485.1 55.191
33.111 3485.1 54.856
32.113 3485.1 54.531
31.127 3485.1 54.148
30.126 3485.1 53.775
29.145 3485.1 53.34
28.159 3485.1 52.851
27.23 3485.1 52.168
26.341 3485.1 51.152
25.6 3485.1 49.294
24.88 3485.1 43.425
24.26 3485.1 35.667
23.739 3485.1 30.873
23.019 3485.1 24.503
22.033 3485.1 18.006
20.818 3485.1 12.57
19.281 3485.1 9.5511
18.457 3485.1 8.3138
17.429 3485.1 7.138
16.303 3485.1 6.3826
14.736 3485.1 5.3403
10.048 3485.1 3.7576
4.6857 3485.1 2.8524
0.99175 3485.1 2.0884